"DMF_SON_1E-4.spc"
"Wavelength nm."	"Abs."
400.00	0.052652
400.50	0.052584
401.00	0.052501
401.50	0.052366
402.00	0.052325
402.50	0.052164
403.00	0.052025
403.50	0.051948
404.00	0.051875
404.50	0.051688
405.00	0.051658
405.50	0.051561
406.00	0.051525
406.50	0.051511
407.00	0.051365
407.50	0.051233
408.00	0.051228
408.50	0.051080
409.00	0.050888
409.50	0.050835
410.00	0.050617
410.50	0.050414
411.00	0.050309
411.50	0.050262
412.00	0.050167
412.50	0.050078
413.00	0.050011
413.50	0.049729
414.00	0.049570
414.50	0.049359
415.00	0.049230
415.50	0.049204
416.00	0.049267
416.50	0.049255
417.00	0.049309
417.50	0.049307
418.00	0.049203
418.50	0.049212
419.00	0.049110
419.50	0.049091
420.00	0.049094
420.50	0.049166
421.00	0.049162
421.50	0.049248
422.00	0.049255
422.50	0.049372
423.00	0.049470
423.50	0.049528
424.00	0.049581
424.50	0.049715
425.00	0.049783
425.50	0.049849
426.00	0.050020
426.50	0.050185
427.00	0.050321
427.50	0.050529
428.00	0.050655
428.50	0.050760
429.00	0.050958
429.50	0.051183
430.00	0.051330
430.50	0.051568
431.00	0.051835
431.50	0.052030
432.00	0.052184
432.50	0.052419
433.00	0.052545
433.50	0.052676
434.00	0.052865
434.50	0.053050
435.00	0.053208
435.50	0.053455
436.00	0.053631
436.50	0.053708
437.00	0.053856
437.50	0.054032
438.00	0.054114
438.50	0.054162
439.00	0.054326
439.50	0.054457
440.00	0.054403
440.50	0.054410
441.00	0.054469
441.50	0.054419
442.00	0.054319
442.50	0.054403
443.00	0.054330
443.50	0.054250
444.00	0.054152
444.50	0.054042
445.00	0.053818
445.50	0.053736
446.00	0.053611
446.50	0.053548
447.00	0.053399
447.50	0.053348
448.00	0.053269
448.50	0.053243
449.00	0.053183
449.50	0.053154
450.00	0.053080
450.50	0.053043
451.00	0.053054
451.50	0.052989
452.00	0.052995
452.50	0.052997
453.00	0.053014
453.50	0.053006
454.00	0.053054
454.50	0.053099
455.00	0.053222
455.50	0.053378
456.00	0.053498
456.50	0.053642
457.00	0.053955
457.50	0.054132
458.00	0.054340
458.50	0.054602
459.00	0.054905
459.50	0.055113
460.00	0.055427
460.50	0.055711
461.00	0.056110
461.50	0.056533
462.00	0.057000
462.50	0.057425
463.00	0.057857
463.50	0.058205
464.00	0.058585
464.50	0.058927
465.00	0.059370
465.50	0.059805
466.00	0.060242
466.50	0.060642
467.00	0.061086
467.50	0.061372
468.00	0.061675
468.50	0.061963
469.00	0.062280
469.50	0.062565
470.00	0.062836
470.50	0.063104
471.00	0.063285
471.50	0.063395
472.00	0.063514
472.50	0.063691
473.00	0.063822
473.50	0.063834
474.00	0.063907
474.50	0.063913
475.00	0.063947
475.50	0.063963
476.00	0.064074
476.50	0.064105
477.00	0.064087
477.50	0.064013
478.00	0.063917
478.50	0.063859
479.00	0.063769
479.50	0.063718
480.00	0.063647
480.50	0.063609
481.00	0.063564
481.50	0.063498
482.00	0.063438
482.50	0.063325
483.00	0.063161
483.50	0.062988
484.00	0.062858
484.50	0.062646
485.00	0.062497
485.50	0.062297
486.00	0.062058
486.50	0.061742
487.00	0.061419
487.50	0.061016
488.00	0.060673
488.50	0.060215
489.00	0.059735
489.50	0.059222
490.00	0.058686
490.50	0.058020
491.00	0.057417
491.50	0.056829
492.00	0.056144
492.50	0.055438
493.00	0.054714
493.50	0.053984
494.00	0.053205
494.50	0.052492
495.00	0.051831
495.50	0.051159
496.00	0.050401
496.50	0.049693
497.00	0.049030
497.50	0.048357
498.00	0.047788
498.50	0.047317
499.00	0.046831
499.50	0.046400
500.00	0.046006
500.50	0.045601
501.00	0.045318
501.50	0.045057
502.00	0.044834
502.50	0.044680
503.00	0.044656
503.50	0.044641
504.00	0.044692
504.50	0.044820
505.00	0.045004
505.50	0.045188
506.00	0.045411
506.50	0.045753
507.00	0.046092
507.50	0.046496
508.00	0.046951
508.50	0.047395
509.00	0.047908
509.50	0.048504
510.00	0.049115
510.50	0.049757
511.00	0.050481
511.50	0.051175
512.00	0.051845
512.50	0.052478
513.00	0.053184
513.50	0.053956
514.00	0.054657
514.50	0.055473
515.00	0.056352
515.50	0.057079
516.00	0.057874
516.50	0.058732
517.00	0.059523
517.50	0.060227
518.00	0.061096
518.50	0.061811
519.00	0.062521
519.50	0.063209
520.00	0.063909
520.50	0.064472
521.00	0.064939
521.50	0.065358
522.00	0.065694
522.50	0.065967
523.00	0.066204
523.50	0.066383
524.00	0.066401
524.50	0.066293
525.00	0.066008
525.50	0.065588
526.00	0.065113
526.50	0.064581
527.00	0.063930
527.50	0.063228
528.00	0.062347
528.50	0.061348
529.00	0.060270
529.50	0.059037
530.00	0.057769
530.50	0.056512
531.00	0.055087
531.50	0.053651
532.00	0.052207
532.50	0.050770
533.00	0.049295
533.50	0.048035
534.00	0.046683
534.50	0.045398
535.00	0.044198
535.50	0.043033
536.00	0.041855
536.50	0.040753
537.00	0.039717
537.50	0.038699
538.00	0.037694
538.50	0.036666
539.00	0.035824
539.50	0.035025
540.00	0.034311
540.50	0.033681
541.00	0.033162
541.50	0.032587
542.00	0.032042
542.50	0.031399
543.00	0.030913
543.50	0.030413
544.00	0.030012
544.50	0.029633
545.00	0.029263
545.50	0.028862
546.00	0.028470
546.50	0.028045
547.00	0.027754
547.50	0.027457
548.00	0.027194
548.50	0.026940
549.00	0.026588
549.50	0.026214
550.00	0.025886
550.50	0.025521
551.00	0.025140
551.50	0.024875
552.00	0.024570
552.50	0.024237
553.00	0.023917
553.50	0.023628
554.00	0.023284
554.50	0.022836
555.00	0.022499
555.50	0.022132
556.00	0.021780
556.50	0.021444
557.00	0.021137
557.50	0.020777
558.00	0.020440
558.50	0.020072
559.00	0.019690
559.50	0.019402
560.00	0.019111
560.50	0.018806
561.00	0.018533
561.50	0.018262
562.00	0.017963
562.50	0.017617
563.00	0.017303
563.50	0.016983
564.00	0.016693
564.50	0.016386
565.00	0.016116
565.50	0.015808
566.00	0.015566
566.50	0.015228
567.00	0.014974
567.50	0.014737
568.00	0.014473
568.50	0.014156
569.00	0.013982
569.50	0.013725
570.00	0.013458
570.50	0.013274
571.00	0.013097
571.50	0.012919
572.00	0.012720
572.50	0.012505
573.00	0.012261
573.50	0.012069
574.00	0.011846
574.50	0.011632
575.00	0.011499
575.50	0.011368
576.00	0.011219
576.50	0.011035
577.00	0.010895
577.50	0.010754
578.00	0.010584
578.50	0.010478
579.00	0.010351
579.50	0.010207
580.00	0.010037
580.50	0.009943
581.00	0.009786
581.50	0.009673
582.00	0.009566
582.50	0.009474
583.00	0.009346
583.50	0.009184
584.00	0.009079
584.50	0.008984
585.00	0.008942
585.50	0.008903
586.00	0.008827
586.50	0.008795
587.00	0.008737
587.50	0.008668
588.00	0.008530
588.50	0.008423
589.00	0.008317
589.50	0.008237
590.00	0.008101
590.50	0.008097
591.00	0.008087
591.50	0.008028
592.00	0.007935
592.50	0.007890
593.00	0.007810
593.50	0.007740
594.00	0.007711
594.50	0.007725
595.00	0.007652
595.50	0.007621
596.00	0.007595
596.50	0.007522
597.00	0.007465
597.50	0.007433
598.00	0.007387
598.50	0.007354
599.00	0.007264
599.50	0.007185
600.00	0.007116
600.50	0.007072
601.00	0.007000
601.50	0.006989
602.00	0.006934
602.50	0.006867
603.00	0.006782
603.50	0.006702
604.00	0.006681
604.50	0.006666
605.00	0.006634
605.50	0.006603
606.00	0.006598
606.50	0.006501
607.00	0.006454
607.50	0.006499
608.00	0.006400
608.50	0.006345
609.00	0.006388
609.50	0.006374
610.00	0.006317
610.50	0.006329
611.00	0.006362
611.50	0.006343
612.00	0.006294
612.50	0.006308
613.00	0.006287
613.50	0.006234
614.00	0.006150
614.50	0.006148
615.00	0.006060
615.50	0.006056
616.00	0.006061
616.50	0.006093
617.00	0.006089
617.50	0.006032
618.00	0.005998
618.50	0.005997
619.00	0.005923
619.50	0.005879
620.00	0.005927
620.50	0.005906
621.00	0.005866
621.50	0.005867
622.00	0.005856
622.50	0.005783
623.00	0.005775
623.50	0.005745
624.00	0.005739
624.50	0.005757
625.00	0.005787
625.50	0.005777
626.00	0.005718
626.50	0.005689
627.00	0.005619
627.50	0.005545
628.00	0.005529
628.50	0.005527
629.00	0.005490
629.50	0.005394
630.00	0.005331
630.50	0.005267
631.00	0.005235
631.50	0.005221
632.00	0.005172
632.50	0.005152
633.00	0.005127
633.50	0.005098
634.00	0.005046
634.50	0.005131
635.00	0.005235
635.50	0.005207
636.00	0.005172
636.50	0.005180
637.00	0.005132
637.50	0.004965
638.00	0.004957
638.50	0.004985
639.00	0.005021
639.50	0.005033
640.00	0.005097
640.50	0.005086
641.00	0.005011
641.50	0.004913
642.00	0.004857
642.50	0.004884
643.00	0.004854
643.50	0.004829
644.00	0.004807
644.50	0.004773
645.00	0.004725
645.50	0.004766
646.00	0.004879
646.50	0.004970
647.00	0.005015
647.50	0.004991
648.00	0.005033
648.50	0.005063
649.00	0.005039
649.50	0.005078
650.00	0.005098
650.50	0.004967
651.00	0.004789
651.50	0.004726
652.00	0.004643
652.50	0.004672
653.00	0.004686
653.50	0.004739
654.00	0.004731
654.50	0.004777
655.00	0.004732
655.50	0.004761
656.00	0.004736
656.50	0.004725
657.00	0.004694
657.50	0.004682
658.00	0.004650
658.50	0.004644
659.00	0.004630
659.50	0.004631
660.00	0.004674
660.50	0.004662
661.00	0.004680
661.50	0.004681
662.00	0.004614
662.50	0.004559
663.00	0.004600
663.50	0.004630
664.00	0.004579
664.50	0.004601
665.00	0.004593
665.50	0.004557
666.00	0.004498
666.50	0.004503
667.00	0.004539
667.50	0.004584
668.00	0.004607
668.50	0.004565
669.00	0.004616
669.50	0.004559
670.00	0.004521
670.50	0.004447
671.00	0.004442
671.50	0.004443
672.00	0.004481
672.50	0.004411
673.00	0.004413
673.50	0.004470
674.00	0.004507
674.50	0.004590
675.00	0.004639
675.50	0.004670
676.00	0.004640
676.50	0.004573
677.00	0.004448
677.50	0.004341
678.00	0.004348
678.50	0.004342
679.00	0.004387
679.50	0.004374
680.00	0.004545
680.50	0.004483
681.00	0.004450
681.50	0.004306
682.00	0.004312
682.50	0.004288
683.00	0.004351
683.50	0.004409
684.00	0.004449
684.50	0.004429
685.00	0.004377
685.50	0.004342
686.00	0.004228
686.50	0.004259
687.00	0.004221
687.50	0.004209
688.00	0.004198
688.50	0.004316
689.00	0.004329
689.50	0.004407
690.00	0.004350
690.50	0.004369
691.00	0.004283
691.50	0.004256
692.00	0.004248
692.50	0.004247
693.00	0.004187
693.50	0.004217
694.00	0.004182
694.50	0.004193
695.00	0.004245
695.50	0.004270
696.00	0.004251
696.50	0.004245
697.00	0.004112
697.50	0.004016
698.00	0.003971
698.50	0.003974
699.00	0.004021
699.50	0.004031
700.00	0.004112
700.50	0.004118
701.00	0.004101
701.50	0.004039
702.00	0.004022
702.50	0.003981
703.00	0.004026
703.50	0.004075
704.00	0.004101
704.50	0.004171
705.00	0.004164
705.50	0.004091
706.00	0.004005
706.50	0.004038
707.00	0.004065
707.50	0.004079
708.00	0.004117
708.50	0.004063
709.00	0.003985
709.50	0.003931
710.00	0.003818
710.50	0.003699
711.00	0.003703
711.50	0.003757
712.00	0.003718
712.50	0.003782
713.00	0.003900
713.50	0.003839
714.00	0.003734
714.50	0.003625
715.00	0.003585
715.50	0.003498
716.00	0.003547
716.50	0.003470
717.00	0.003539
717.50	0.003549
718.00	0.003506
718.50	0.003609
719.00	0.003673
719.50	0.003668
720.00	0.003658
720.50	0.003692
721.00	0.003623
721.50	0.003629
722.00	0.003636
722.50	0.003611
723.00	0.003578
723.50	0.003549
724.00	0.003464
724.50	0.003413
725.00	0.003390
725.50	0.003380
726.00	0.003322
726.50	0.003386
727.00	0.003354
727.50	0.003310
728.00	0.003260
728.50	0.003226
729.00	0.003196
729.50	0.003192
730.00	0.003167
730.50	0.003249
731.00	0.003242
731.50	0.003211
732.00	0.003122
732.50	0.003157
733.00	0.003103
733.50	0.003105
734.00	0.003112
734.50	0.003167
735.00	0.003107
735.50	0.003045
736.00	0.003016
736.50	0.003013
737.00	0.003087
737.50	0.003180
738.00	0.003202
738.50	0.003236
739.00	0.003180
739.50	0.003144
740.00	0.003095
740.50	0.003053
741.00	0.002954
741.50	0.002931
742.00	0.002920
742.50	0.002903
743.00	0.002932
743.50	0.002985
744.00	0.003021
744.50	0.002985
745.00	0.003064
745.50	0.003072
746.00	0.003154
746.50	0.003140
747.00	0.003165
747.50	0.003039
748.00	0.003036
748.50	0.002924
749.00	0.002827
749.50	0.002749
750.00	0.002749
750.50	0.002708
751.00	0.002705
751.50	0.002736
752.00	0.002730
752.50	0.002691
753.00	0.002698
753.50	0.002746
754.00	0.002788
754.50	0.002845
755.00	0.002854
755.50	0.002785
756.00	0.002732
756.50	0.002712
757.00	0.002618
757.50	0.002668
758.00	0.002684
758.50	0.002621
759.00	0.002581
759.50	0.002589
760.00	0.002645
760.50	0.002710
761.00	0.002700
761.50	0.002715
762.00	0.002753
762.50	0.002653
763.00	0.002556
763.50	0.002586
764.00	0.002488
764.50	0.002467
765.00	0.002412
765.50	0.002439
766.00	0.002429
766.50	0.002550
767.00	0.002539
767.50	0.002499
768.00	0.002578
768.50	0.002659
769.00	0.002631
769.50	0.002597
770.00	0.002605
770.50	0.002538
771.00	0.002376
771.50	0.002333
772.00	0.002410
772.50	0.002419
773.00	0.002388
773.50	0.002374
774.00	0.002394
774.50	0.002285
775.00	0.002354
775.50	0.002262
776.00	0.002326
776.50	0.002227
777.00	0.002287
777.50	0.002115
778.00	0.002180
778.50	0.002072
779.00	0.002080
779.50	0.002057
780.00	0.001976
780.50	0.001894
781.00	0.001967
781.50	0.002005
782.00	0.001922
782.50	0.002061
783.00	0.002109
783.50	0.002177
784.00	0.002192
784.50	0.002197
785.00	0.002243
785.50	0.002210
786.00	0.002090
786.50	0.002047
787.00	0.002049
787.50	0.001956
788.00	0.001978
788.50	0.001896
789.00	0.001922
789.50	0.001920
790.00	0.001937
790.50	0.001899
791.00	0.001988
791.50	0.001967
792.00	0.001943
792.50	0.001951
793.00	0.002020
793.50	0.002039
794.00	0.002049
794.50	0.002166
795.00	0.002092
795.50	0.002021
796.00	0.001887
796.50	0.001832
797.00	0.001791
797.50	0.001843
798.00	0.001818
798.50	0.001918
799.00	0.002046
799.50	0.002099
800.00	0.002218
