"NMI_SON_1E-5.spc"
"Wavelength nm."	"Abs."
400.00	0.005722
400.50	0.005742
401.00	0.005830
401.50	0.005940
402.00	0.005843
402.50	0.005775
403.00	0.005878
403.50	0.005816
404.00	0.005701
404.50	0.005695
405.00	0.005653
405.50	0.005622
406.00	0.005620
406.50	0.005692
407.00	0.005643
407.50	0.005656
408.00	0.005583
408.50	0.005683
409.00	0.005653
409.50	0.005676
410.00	0.005694
410.50	0.005721
411.00	0.005606
411.50	0.005571
412.00	0.005553
412.50	0.005576
413.00	0.005591
413.50	0.005636
414.00	0.005606
414.50	0.005563
415.00	0.005518
415.50	0.005472
416.00	0.005457
416.50	0.005536
417.00	0.005638
417.50	0.005664
418.00	0.005662
418.50	0.005616
419.00	0.005602
419.50	0.005571
420.00	0.005569
420.50	0.005565
421.00	0.005498
421.50	0.005383
422.00	0.005396
422.50	0.005450
423.00	0.005486
423.50	0.005536
424.00	0.005642
424.50	0.005571
425.00	0.005540
425.50	0.005521
426.00	0.005466
426.50	0.005414
427.00	0.005531
427.50	0.005466
428.00	0.005385
428.50	0.005482
429.00	0.005605
429.50	0.005546
430.00	0.005599
430.50	0.005694
431.00	0.005631
431.50	0.005563
432.00	0.005547
432.50	0.005539
433.00	0.005479
433.50	0.005555
434.00	0.005541
434.50	0.005595
435.00	0.005632
435.50	0.005696
436.00	0.005737
436.50	0.005697
437.00	0.005659
437.50	0.005707
438.00	0.005745
438.50	0.005685
439.00	0.005731
439.50	0.005803
440.00	0.005833
440.50	0.005816
441.00	0.005837
441.50	0.005801
442.00	0.005804
442.50	0.005732
443.00	0.005776
443.50	0.005781
444.00	0.005890
444.50	0.005893
445.00	0.005917
445.50	0.005881
446.00	0.005899
446.50	0.005859
447.00	0.005870
447.50	0.005815
448.00	0.005821
448.50	0.005868
449.00	0.005915
449.50	0.005909
450.00	0.005915
450.50	0.005901
451.00	0.005894
451.50	0.005878
452.00	0.005879
452.50	0.005937
453.00	0.005975
453.50	0.005958
454.00	0.005955
454.50	0.005956
455.00	0.005946
455.50	0.005881
456.00	0.005811
456.50	0.005778
457.00	0.005756
457.50	0.005806
458.00	0.005811
458.50	0.005908
459.00	0.005884
459.50	0.005825
460.00	0.005724
460.50	0.005730
461.00	0.005716
461.50	0.005752
462.00	0.005846
462.50	0.005917
463.00	0.005925
463.50	0.005904
464.00	0.005937
464.50	0.005984
465.00	0.005952
465.50	0.005964
466.00	0.006011
466.50	0.006045
467.00	0.006015
467.50	0.006098
468.00	0.006112
468.50	0.006137
469.00	0.006149
469.50	0.006180
470.00	0.006177
470.50	0.006290
471.00	0.006367
471.50	0.006405
472.00	0.006404
472.50	0.006489
473.00	0.006501
473.50	0.006474
474.00	0.006492
474.50	0.006537
475.00	0.006564
475.50	0.006591
476.00	0.006633
476.50	0.006676
477.00	0.006724
477.50	0.006636
478.00	0.006699
478.50	0.006685
479.00	0.006752
479.50	0.006799
480.00	0.006842
480.50	0.006818
481.00	0.006849
481.50	0.006752
482.00	0.006733
482.50	0.006817
483.00	0.006829
483.50	0.006853
484.00	0.006890
484.50	0.006854
485.00	0.006843
485.50	0.006804
486.00	0.006784
486.50	0.006771
487.00	0.006739
487.50	0.006749
488.00	0.006779
488.50	0.006724
489.00	0.006734
489.50	0.006727
490.00	0.006609
490.50	0.006536
491.00	0.006566
491.50	0.006553
492.00	0.006565
492.50	0.006588
493.00	0.006554
493.50	0.006518
494.00	0.006462
494.50	0.006400
495.00	0.006317
495.50	0.006283
496.00	0.006180
496.50	0.006037
497.00	0.006024
497.50	0.005967
498.00	0.005906
498.50	0.005896
499.00	0.005947
499.50	0.005849
500.00	0.005816
500.50	0.005693
501.00	0.005656
501.50	0.005517
502.00	0.005471
502.50	0.005427
503.00	0.005424
503.50	0.005315
504.00	0.005314
504.50	0.005186
505.00	0.005114
505.50	0.005074
506.00	0.005023
506.50	0.004991
507.00	0.004945
507.50	0.004899
508.00	0.004852
508.50	0.004811
509.00	0.004766
509.50	0.004834
510.00	0.004774
510.50	0.004816
511.00	0.004865
511.50	0.004793
512.00	0.004762
512.50	0.004835
513.00	0.004834
513.50	0.004784
514.00	0.004861
514.50	0.004880
515.00	0.004887
515.50	0.004850
516.00	0.004884
516.50	0.004886
517.00	0.004940
517.50	0.004997
518.00	0.005111
518.50	0.005206
519.00	0.005309
519.50	0.005325
520.00	0.005425
520.50	0.005468
521.00	0.005574
521.50	0.005651
522.00	0.005726
522.50	0.005746
523.00	0.005799
523.50	0.005839
524.00	0.005901
524.50	0.005983
525.00	0.006109
525.50	0.006256
526.00	0.006364
526.50	0.006495
527.00	0.006610
527.50	0.006642
528.00	0.006658
528.50	0.006664
529.00	0.006719
529.50	0.006753
530.00	0.006781
530.50	0.006810
531.00	0.006837
531.50	0.006831
532.00	0.006836
532.50	0.006854
533.00	0.006812
533.50	0.006802
534.00	0.006691
534.50	0.006636
535.00	0.006565
535.50	0.006458
536.00	0.006335
536.50	0.006319
537.00	0.006196
537.50	0.006063
538.00	0.005993
538.50	0.005897
539.00	0.005720
539.50	0.005545
540.00	0.005415
540.50	0.005241
541.00	0.005070
541.50	0.004924
542.00	0.004794
542.50	0.004688
543.00	0.004660
543.50	0.004576
544.00	0.004482
544.50	0.004461
545.00	0.004326
545.50	0.004141
546.00	0.004056
546.50	0.003946
547.00	0.003837
547.50	0.003807
548.00	0.003760
548.50	0.003657
549.00	0.003604
549.50	0.003512
550.00	0.003432
550.50	0.003404
551.00	0.003349
551.50	0.003356
552.00	0.003374
552.50	0.003310
553.00	0.003208
553.50	0.003159
554.00	0.003059
554.50	0.002958
555.00	0.002892
555.50	0.002827
556.00	0.002812
556.50	0.002740
557.00	0.002706
557.50	0.002638
558.00	0.002623
558.50	0.002536
559.00	0.002494
559.50	0.002439
560.00	0.002431
560.50	0.002448
561.00	0.002427
561.50	0.002346
562.00	0.002285
562.50	0.002224
563.00	0.002141
563.50	0.002166
564.00	0.002284
564.50	0.002333
565.00	0.002348
565.50	0.002300
566.00	0.002267
566.50	0.002186
567.00	0.002082
567.50	0.001957
568.00	0.001918
568.50	0.001823
569.00	0.001701
569.50	0.001637
570.00	0.001673
570.50	0.001680
571.00	0.001584
571.50	0.001585
572.00	0.001581
572.50	0.001535
573.00	0.001514
573.50	0.001559
574.00	0.001564
574.50	0.001545
575.00	0.001507
575.50	0.001392
576.00	0.001354
576.50	0.001285
577.00	0.001278
577.50	0.001338
578.00	0.001372
578.50	0.001332
579.00	0.001315
579.50	0.001316
580.00	0.001166
580.50	0.001037
581.00	0.000995
581.50	0.001008
582.00	0.000952
582.50	0.000961
583.00	0.001001
583.50	0.001018
584.00	0.000958
584.50	0.000947
585.00	0.000941
585.50	0.000943
586.00	0.000927
586.50	0.000887
587.00	0.000859
587.50	0.000826
588.00	0.000773
588.50	0.000747
589.00	0.000762
589.50	0.000741
590.00	0.000746
590.50	0.000750
591.00	0.000737
591.50	0.000740
592.00	0.000731
592.50	0.000783
593.00	0.000805
593.50	0.000777
594.00	0.000737
594.50	0.000707
595.00	0.000609
595.50	0.000590
596.00	0.000591
596.50	0.000550
597.00	0.000496
597.50	0.000558
598.00	0.000608
598.50	0.000608
599.00	0.000712
599.50	0.000790
600.00	0.000756
600.50	0.000727
601.00	0.000712
601.50	0.000648
602.00	0.000610
602.50	0.000589
603.00	0.000588
603.50	0.000608
604.00	0.000595
604.50	0.000592
605.00	0.000571
605.50	0.000587
606.00	0.000607
606.50	0.000648
607.00	0.000690
607.50	0.000677
608.00	0.000573
608.50	0.000568
609.00	0.000578
609.50	0.000531
610.00	0.000587
610.50	0.000640
611.00	0.000520
611.50	0.000428
612.00	0.000405
612.50	0.000339
613.00	0.000289
613.50	0.000270
614.00	0.000270
614.50	0.000278
615.00	0.000327
615.50	0.000352
616.00	0.000392
616.50	0.000389
617.00	0.000336
617.50	0.000299
618.00	0.000296
618.50	0.000339
619.00	0.000283
619.50	0.000295
620.00	0.000242
620.50	0.000183
621.00	0.000215
621.50	0.000324
622.00	0.000366
622.50	0.000450
623.00	0.000503
623.50	0.000455
624.00	0.000390
624.50	0.000352
625.00	0.000283
625.50	0.000271
626.00	0.000279
626.50	0.000265
627.00	0.000289
627.50	0.000242
628.00	0.000165
628.50	0.000140
629.00	0.000202
629.50	0.000152
630.00	0.000184
630.50	0.000229
631.00	0.000252
631.50	0.000222
632.00	0.000236
632.50	0.000245
633.00	0.000260
633.50	0.000206
634.00	0.000215
634.50	0.000244
635.00	0.000177
635.50	0.000146
636.00	0.000166
636.50	0.000108
637.00	0.000040
637.50	0.000074
638.00	0.000085
638.50	0.000005
639.00	-0.000021
639.50	-0.000017
640.00	0.000021
640.50	0.000008
641.00	0.000057
641.50	0.000118
642.00	0.000141
642.50	0.000114
643.00	0.000131
643.50	0.000165
644.00	0.000158
644.50	0.000179
645.00	0.000127
645.50	0.000115
646.00	0.000084
646.50	0.000017
647.00	-0.000009
647.50	0.000077
648.00	0.000109
648.50	0.000092
649.00	0.000124
649.50	0.000155
650.00	0.000158
650.50	0.000184
651.00	0.000225
651.50	0.000265
652.00	0.000235
652.50	0.000318
653.00	0.000253
653.50	0.000151
654.00	0.000031
654.50	-0.000033
655.00	-0.000228
655.50	-0.000215
656.00	-0.000157
656.50	-0.000146
657.00	-0.000092
657.50	-0.000057
658.00	-0.000062
658.50	-0.000068
659.00	-0.000039
659.50	0.000007
660.00	0.000031
660.50	0.000051
661.00	-0.000011
661.50	0.000019
662.00	-0.000019
662.50	-0.000064
663.00	-0.000099
663.50	0.000052
664.00	0.000043
664.50	0.000001
665.00	0.000003
665.50	0.000017
666.00	-0.000072
666.50	-0.000049
667.00	-0.000032
667.50	0.000030
668.00	-0.000020
668.50	0.000001
669.00	0.000004
669.50	0.000010
670.00	0.000023
670.50	0.000075
671.00	0.000080
671.50	0.000088
672.00	0.000100
672.50	0.000062
673.00	0.000046
673.50	0.000014
674.00	-0.000037
674.50	-0.000006
675.00	0.000010
675.50	0.000051
676.00	0.000088
676.50	0.000097
677.00	0.000092
677.50	0.000035
678.00	0.000020
678.50	-0.000020
679.00	0.000020
679.50	-0.000020
680.00	-0.000022
680.50	-0.000070
681.00	-0.000001
681.50	-0.000057
682.00	-0.000084
682.50	-0.000055
683.00	-0.000060
683.50	-0.000054
684.00	-0.000005
684.50	0.000091
685.00	0.000070
685.50	0.000047
686.00	-0.000045
686.50	-0.000012
687.00	-0.000001
687.50	0.000031
688.00	0.000042
688.50	0.000074
689.00	0.000009
689.50	-0.000053
690.00	-0.000074
690.50	0.000002
691.00	0.000017
691.50	-0.000023
692.00	-0.000022
692.50	0.000023
693.00	0.000012
693.50	-0.000002
694.00	0.000044
694.50	0.000013
695.00	-0.000071
695.50	-0.000095
696.00	-0.000076
696.50	-0.000079
697.00	-0.000094
697.50	0.000027
698.00	0.000041
698.50	0.000034
699.00	0.000032
699.50	0.000064
700.00	0.000012
700.50	-0.000005
701.00	0.000059
701.50	0.000055
702.00	0.000060
702.50	0.000077
703.00	0.000033
703.50	-0.000083
704.00	-0.000137
704.50	-0.000171
705.00	-0.000185
705.50	-0.000219
706.00	-0.000157
706.50	-0.000060
707.00	-0.000071
707.50	-0.000165
708.00	-0.000132
708.50	-0.000179
709.00	-0.000261
709.50	-0.000159
710.00	-0.000033
710.50	-0.000002
711.00	0.000058
711.50	0.000084
712.00	-0.000002
712.50	-0.000012
713.00	-0.000046
713.50	-0.000033
714.00	-0.000023
714.50	-0.000014
715.00	-0.000045
715.50	-0.000054
716.00	-0.000193
716.50	-0.000254
717.00	-0.000295
717.50	-0.000302
718.00	-0.000293
718.50	-0.000200
719.00	-0.000132
719.50	-0.000070
720.00	-0.000024
720.50	-0.000070
721.00	-0.000070
721.50	-0.000071
722.00	-0.000102
722.50	-0.000168
723.00	-0.000051
723.50	-0.000047
724.00	0.000000
724.50	0.000042
725.00	0.000118
725.50	0.000088
726.00	0.000070
726.50	-0.000034
727.00	-0.000029
727.50	-0.000051
728.00	-0.000077
728.50	-0.000069
729.00	-0.000000
729.50	0.000026
730.00	0.000024
730.50	-0.000009
731.00	0.000058
731.50	0.000095
732.00	-0.000005
732.50	0.000046
733.00	0.000104
733.50	0.000074
734.00	0.000109
734.50	0.000163
735.00	0.000128
735.50	0.000014
736.00	-0.000113
736.50	-0.000148
737.00	-0.000085
737.50	-0.000117
738.00	0.000015
738.50	0.000094
739.00	0.000107
739.50	0.000033
740.00	0.000124
740.50	0.000125
741.00	0.000148
741.50	0.000025
742.00	0.000046
742.50	-0.000023
743.00	-0.000042
743.50	-0.000088
744.00	-0.000005
744.50	0.000009
745.00	0.000053
745.50	0.000053
746.00	0.000058
746.50	-0.000060
747.00	-0.000108
747.50	-0.000185
748.00	-0.000168
748.50	-0.000183
749.00	-0.000070
749.50	-0.000128
750.00	-0.000140
750.50	-0.000190
751.00	-0.000122
751.50	-0.000112
752.00	0.000004
752.50	0.000013
753.00	-0.000026
753.50	-0.000072
754.00	-0.000095
754.50	-0.000151
755.00	-0.000169
755.50	-0.000155
756.00	-0.000113
756.50	-0.000121
757.00	-0.000141
757.50	-0.000052
758.00	0.000019
758.50	0.000061
759.00	0.000111
759.50	0.000196
760.00	0.000163
760.50	0.000124
761.00	0.000168
761.50	0.000140
762.00	0.000096
762.50	0.000068
763.00	0.000130
763.50	0.000058
764.00	0.000035
764.50	0.000065
765.00	0.000153
765.50	0.000101
766.00	0.000063
766.50	0.000032
767.00	-0.000072
767.50	-0.000205
768.00	-0.000238
768.50	-0.000272
769.00	-0.000251
769.50	-0.000147
770.00	-0.000089
770.50	-0.000016
771.00	0.000055
771.50	0.000106
772.00	0.000127
772.50	0.000274
773.00	0.000222
773.50	0.000200
774.00	0.000095
774.50	0.000060
775.00	-0.000157
775.50	-0.000111
776.00	-0.000098
776.50	0.000008
777.00	0.000031
777.50	0.000128
778.00	0.000085
778.50	0.000079
779.00	0.000007
779.50	-0.000073
780.00	0.000003
780.50	0.000103
781.00	0.000111
781.50	0.000132
782.00	0.000164
782.50	0.000076
783.00	-0.000060
783.50	-0.000018
784.00	0.000049
784.50	0.000087
785.00	0.000062
785.50	0.000141
786.00	0.000065
786.50	0.000105
787.00	0.000058
787.50	0.000036
788.00	0.000053
788.50	0.000028
789.00	-0.000166
789.50	-0.000177
790.00	-0.000156
790.50	-0.000275
791.00	-0.000125
791.50	0.000029
792.00	0.000062
792.50	0.000007
793.00	0.000081
793.50	-0.000035
794.00	-0.000071
794.50	-0.000020
795.00	0.000159
795.50	0.000134
796.00	0.000060
796.50	-0.000068
797.00	-0.000042
797.50	-0.000115
798.00	-0.000019
798.50	0.000096
799.00	0.000194
799.50	0.000088
800.00	0.000025
